File: measurements/KZ EDX
FFT	AudioTools 	v16.1.4 iPad battery 100%	07/01/2023, 12:34	USB-C to 3.5mm Headphone Jack Adapter L Mic Low Range	3E413E14-4E3E-409A-A5B7-705B65920E1E
Frequency	dB	Unweighted
19.5	45.5
20.1	45.8
20.6	46
21.2	46.3
21.9	46.5
22.5	46.8
23.2	47
23.8	47.3
24.5	47.6
25.3	47.9
26	48.2
26.8	48.4
27.5	48.5
28.4	48.5
29.2	48.7
30	48.9
30.9	49.1
31.8	49.1
32.8	49.1
33.7	49.1
34.7	49.2
35.7	49.3
36.8	49.3
37.9	49.4
39	49.6
40.1	49.7
41.3	49.5
42.5	49.6
43.7	49.7
45	49.6
46.3	49.4
47.7	49.6
49.1	49.4
50.5	49.3
52	49.4
53.5	49.3
55.1	49.2
56.7	49.4
58.4	49.6
60.1	49.6
61.8	49.3
63.7	49.1
65.5	49.2
67.4	49.2
69.4	49.4
71.5	49.3
73.5	49.1
75.7	48.8
77.9	48.7
80.2	48.7
82.6	48.5
85	48.4
87.5	48.7
90	48.9
92.7	48.6
95.4	48.5
98.2	48.4
101	48.3
104	48.3
107	48.4
110	48
113	47.8
117	47.8
120	47.8
124	47.6
127	47.4
131	47.2
135	47.2
139	46.8
143	46.7
147	46.4
151	46.3
156	45.9
160	45.8
165	45.4
170	45.1
175	45
180	44.6
185	44.6
191	44.5
196	44.2
202	44
208	43.6
214	43.6
220	43.1
227	42.9
234	42.9
240	42.8
247	43.2
255	43.1
262	43.3
270	43.4
278	43.4
286	43.2
294	42.9
303	42.6
312	42.1
321	41.9
330	41.7
340	41.3
350	41
360	40.9
371	40.7
382	40.4
393	40.6
404	40.4
416	41.2
428	41.3
441	41.3
454	41.3
467	40.7
481	40.5
495	40.4
509	40.5
524	40.3
540	40.1
555	40
572	39.8
588	39.6
606	39.5
623	39.5
642	39.3
660	39.3
680	39.2
700	39.3
720	39.3
741	39.5
763	39.5
785	39.3
808	39.3
832	39.3
856	39.4
882	39.3
907	39.3
934	39.6
961	39.7
990	40.2
1019	40.5
1048	40.8
1079	41
1111	41.1
1143	41.4
1177	41.3
1211	41.5
1247	41.6
1283	41.9
1321	42.2
1360	42.5
1399	43
1440	43.5
1483	44.1
1526	44.6
1571	45
1617	45.8
1664	46.3
1713	46.9
1763	47
1815	47.9
1868	48.4
1923	49.2
1979	49.8
2037	50.7
2097	51.3
2158	51.9
2221	52.1
2287	52.2
2354	52
2423	51.6
2494	51
2567	50.5
2642	50
2719	49.4
2799	49
2881	48.7
2965	48.6
3052	48.4
3142	48.5
3234	48.5
3328	48.5
3426	48.4
3526	48.7
3630	48.9
3736	49
3846	49.3
3958	49.8
4074	50.7
4194	51.5
4316	53.1
4443	55.4
4573	57.4
4707	59.4
4845	59.5
4987	59.2
5133	58.6
5284	57.6
5438	57.6
5598	57.5
5762	57.7
5931	55.8
6104	56.2
6283	53.3
6467	50
6657	46.3
6852	43.4
7053	41.4
7259	39.8
7472	38.2
7691	37.1
7916	36.8
8148	36.8
8387	37.7
8633	38.9
8886	40.8
9146	43
9414	47.6
9690	50.4
9974	45.4
10266	41.8
10567	39.8
10877	38.4
11196	37.9
11524	38.5
11861	39.7
12209	44.6
12567	45.7
12935	41.1
13314	38.2
13704	36.3
14105	36.5
14519	40.3
14944	42.7
15382	36.4
15833	29.7
16297	26.9
16774	26.7
17266	28
17772	33.3
18293	33.4
18829	27.9
19380	25.7
20000	24.9
overall dB	72.2 dB
decay	Average
averaging	1/24 Octave
source	USB-C to 3.5mm Headphone Jack Adapter L Mic Low Range
latitude	52
longitude	4.358
saved	07/01/2023, 12:34
peak	30.8Hz